% Data acquired by the PCI6221 device on 25/11/2024 at 17:07
% Sample rate [Hz]: 1000.000000
%   acq_output  acq_input1  acq_input2 input1_calc input2_calc
data=[
 3.345905 	 3.999813 	 3.999813 	 4.000000 	 4.000000 
 2.807851 	 4.160126 	 4.000462 	 4.160000 	 4.000000 
 2.541097 	 4.319466 	 3.999813 	 4.320000 	 4.000000 
 2.739378 	 4.479455 	 3.999813 	 4.480000 	 4.000000 
 3.138536 	 4.639768 	 4.000137 	 4.640000 	 4.000000 
 3.593189 	 4.799758 	 4.000137 	 4.800000 	 4.000000 
 4.038431 	 4.959747 	 3.999813 	 4.960000 	 4.000000 
 4.449599 	 5.119737 	 4.000137 	 5.120000 	 4.000000 
 4.816957 	 5.280051 	 4.000137 	 5.280000 	 4.000000 
 5.138234 	 5.440690 	 3.999813 	 5.440000 	 4.000000 
 5.409536 	 5.600031 	 4.000137 	 5.600000 	 4.000000 
 5.632159 	 5.759696 	 3.999813 	 5.760000 	 4.000000 
 5.813892 	 5.920660 	 4.000137 	 5.920000 	 4.000000 
 5.961550 	 6.080002 	 4.000137 	 6.080000 	 4.000000 
 6.091685 	 6.239992 	 3.999813 	 6.240000 	 4.000000 
 6.212083 	 6.400632 	 3.999813 	 6.400000 	 4.000000 
 6.333780 	 6.559974 	 3.999813 	 6.560000 	 4.000000 
 6.466836 	 6.720290 	 3.999813 	 6.720000 	 4.000000 
 6.608653 	 6.880282 	 3.999813 	 6.880000 	 4.000000 
 6.758260 	 7.040273 	 3.999813 	 7.040000 	 4.000000 
 6.916304 	 7.199941 	 4.000137 	 7.200000 	 4.000000 
 7.079866 	 7.360257 	 4.000137 	 7.360000 	 4.000000 
 7.240831 	 7.519925 	 4.000137 	 7.520000 	 4.000000 
 7.407963 	 7.680242 	 4.000137 	 7.680000 	 4.000000 
 7.573148 	 7.839910 	 4.000137 	 7.840000 	 4.000000 
 7.738657 	 8.000228 	 4.000137 	 8.000000 	 4.000000 
 7.902544 	 7.839586 	 4.000462 	 7.840000 	 4.000000 
 8.015156 	 7.680242 	 4.000137 	 7.680000 	 4.000000 
 8.038847 	 7.519925 	 3.999813 	 7.520000 	 4.000000 
 7.970046 	 7.359608 	 3.999813 	 7.360000 	 4.000000 
 7.834393 	 7.199941 	 3.999813 	 7.200000 	 4.000000 
 7.662393 	 7.040273 	 4.000137 	 7.040000 	 4.000000 
 7.476114 	 6.879957 	 3.999488 	 6.880000 	 4.000000 
 7.285616 	 6.719966 	 3.999813 	 6.720000 	 4.000000 
 7.103231 	 6.559974 	 4.000137 	 6.560000 	 4.000000 
 6.931881 	 6.399983 	 3.999813 	 6.400000 	 4.000000 
 6.768969 	 6.239992 	 3.999813 	 6.240000 	 4.000000 
 6.607680 	 6.079677 	 3.999813 	 6.080000 	 4.000000 
 6.451583 	 5.920336 	 4.000137 	 5.920000 	 4.000000 
 6.298732 	 5.760345 	 3.999813 	 5.760000 	 4.000000 
 6.141012 	 5.600031 	 3.999813 	 5.600000 	 4.000000 
 5.983943 	 5.440365 	 4.000137 	 5.440000 	 4.000000 
 5.822330 	 5.280051 	 4.000462 	 5.280000 	 4.000000 
 5.660717 	 5.119737 	 3.999813 	 5.120000 	 4.000000 
 5.502349 	 4.959423 	 4.000137 	 4.960000 	 4.000000 
 5.341061 	 4.799758 	 4.000137 	 4.800000 	 4.000000 
 5.183343 	 4.640093 	 3.999813 	 4.640000 	 4.000000 
 5.026274 	 4.480104 	 3.999813 	 4.480000 	 4.000000 
 4.866609 	 4.319790 	 4.000137 	 4.320000 	 4.000000 
 4.707269 	 4.159801 	 4.000137 	 4.160000 	 4.000000 
 4.549551 	 3.999813 	 3.999813 	 4.000000 	 4.000000 
 4.386642 	 3.839824 	 3.999813 	 3.840000 	 4.000000 
 4.229249 	 3.680160 	 3.999813 	 3.680000 	 4.000000 
 4.066989 	 3.519523 	 4.000462 	 3.520000 	 4.000000 
 3.908298 	 3.359859 	 4.000137 	 3.360000 	 4.000000 
 3.748634 	 3.199546 	 4.000462 	 3.200000 	 4.000000 
 3.588645 	 3.039558 	 4.000137 	 3.040000 	 4.000000 
 3.430604 	 2.879895 	 4.000137 	 2.880000 	 4.000000 
 3.271590 	 2.719582 	 4.000137 	 2.720000 	 4.000000 
 3.112575 	 2.559919 	 4.000462 	 2.560000 	 4.000000 
 2.954209 	 2.399282 	 4.000462 	 2.400000 	 4.000000 
 2.794546 	 2.239619 	 3.999488 	 2.240000 	 4.000000 
 2.635207 	 2.078982 	 3.999813 	 2.080000 	 4.000000 
 2.472299 	 1.919319 	 4.000137 	 1.920000 	 4.000000 
 2.312960 	 1.759332 	 3.999813 	 1.760000 	 4.000000 
 2.153946 	 1.599020 	 3.999813 	 1.600000 	 4.000000 
 1.995256 	 1.439357 	 3.999813 	 1.440000 	 4.000000 
 1.836892 	 1.279694 	 4.000137 	 1.280000 	 4.000000 
 1.679825 	 1.119382 	 4.000137 	 1.120000 	 4.000000 
 1.519837 	 0.959720 	 3.999813 	 0.960000 	 4.000000 
 1.360824 	 0.799083 	 4.000137 	 0.800000 	 4.000000 
 1.200512 	 0.639745 	 4.000137 	 0.640000 	 4.000000 
 1.037604 	 0.479758 	 3.999813 	 0.480000 	 4.000000 
 0.881511 	 0.319122 	 3.999813 	 0.320000 	 4.000000 
 0.721199 	 0.159135 	 4.000137 	 0.160000 	 4.000000 
 0.560563 	 -0.000203 	 3.999813 	 0.000000 	 4.000000 
 0.403496 	 0.159784 	 3.999813 	 0.160000 	 4.000000 
 0.289591 	 0.319122 	 4.000137 	 0.320000 	 4.000000 
 0.268173 	 0.479109 	 3.999813 	 0.480000 	 4.000000 
 0.335023 	 0.639745 	 3.999813 	 0.640000 	 4.000000 
 0.465804 	 0.799732 	 3.999813 	 0.800000 	 4.000000 
 0.639745 	 0.959395 	 4.000137 	 0.960000 	 4.000000 
 0.826018 	 1.119058 	 3.999813 	 1.120000 	 4.000000 
 1.012616 	 1.280019 	 4.000137 	 1.280000 	 4.000000 
 1.192399 	 1.439681 	 3.999813 	 1.440000 	 4.000000 
 1.364718 	 1.599344 	 4.000137 	 1.600000 	 4.000000 
 1.530546 	 1.759656 	 4.000137 	 1.760000 	 4.000000 
 1.689236 	 1.919644 	 4.000137 	 1.920000 	 4.000000 
 1.847925 	 2.079631 	 3.999813 	 2.080000 	 4.000000 
 2.005641 	 2.239294 	 3.999813 	 2.240000 	 4.000000 
 2.162383 	 2.399607 	 3.999813 	 2.400000 	 4.000000 
 2.322047 	 2.559594 	 4.000137 	 2.560000 	 4.000000 
 2.477167 	 2.719582 	 3.999813 	 2.720000 	 4.000000 
 2.635207 	 2.880219 	 3.999813 	 2.880000 	 4.000000 
 2.794222 	 3.039558 	 3.999813 	 3.040000 	 4.000000 
 2.953885 	 3.199546 	 4.000137 	 3.200000 	 4.000000 
 3.115820 	 3.359859 	 4.000137 	 3.360000 	 4.000000 
 3.276782 	 3.519847 	 4.000137 	 3.520000 	 4.000000 
 3.435472 	 3.680160 	 4.000137 	 3.680000 	 4.000000 
 3.596109 	 3.839500 	 4.000137 	 3.840000 	 4.000000 
 3.754151 	 4.000137 	 4.000137 	 4.000000 	 4.000000 
 3.911543 	 4.159477 	 4.000137 	 4.160000 	 4.000000 
 4.069585 	 4.319141 	 3.999813 	 4.320000 	 4.000000 
 4.231196 	 4.479455 	 4.000137 	 4.480000 	 4.000000 
 4.389562 	 4.640093 	 3.999813 	 4.640000 	 4.000000 
 4.552472 	 4.799109 	 4.000137 	 4.800000 	 4.000000 
 4.709541 	 4.959747 	 3.999813 	 4.960000 	 4.000000 
 4.869205 	 5.120061 	 4.000137 	 5.120000 	 4.000000 
 5.029844 	 5.280051 	 3.999813 	 5.280000 	 4.000000 
 5.187562 	 5.440041 	 4.000137 	 5.440000 	 4.000000 
 5.348525 	 5.600031 	 3.999813 	 5.600000 	 4.000000 
 5.508840 	 5.760021 	 4.000137 	 5.760000 	 4.000000 
 5.665909 	 5.920336 	 3.999813 	 5.920000 	 4.000000 
 5.823303 	 6.080002 	 4.000462 	 6.080000 	 4.000000 
 5.984592 	 6.240317 	 4.000137 	 6.240000 	 4.000000 
 6.141986 	 6.399983 	 4.000137 	 6.400000 	 4.000000 
 6.302626 	 6.559974 	 4.000137 	 6.560000 	 4.000000 
 6.462617 	 6.719966 	 3.999813 	 6.720000 	 4.000000 
 6.625529 	 6.880282 	 3.999813 	 6.880000 	 4.000000 
 6.783248 	 7.039949 	 4.000137 	 7.040000 	 4.000000 
 6.943889 	 7.199941 	 4.000137 	 7.200000 	 4.000000 
 7.100960 	 7.359933 	 4.000137 	 7.360000 	 4.000000 
 7.257382 	 7.519925 	 4.000462 	 7.520000 	 4.000000 
 7.417699 	 7.679917 	 3.999488 	 7.680000 	 4.000000 
 7.576393 	 7.839910 	 3.999813 	 7.840000 	 4.000000 
 7.735087 	 8.000228 	 4.000137 	 8.000000 	 4.000000 
 7.899299 	 7.839910 	 3.999488 	 7.840000 	 4.000000 
 8.012884 	 7.680566 	 3.999813 	 7.680000 	 4.000000 
 8.035277 	 7.520249 	 4.000462 	 7.520000 	 4.000000 
 7.967126 	 7.359933 	 3.999813 	 7.360000 	 4.000000 
 7.831797 	 7.200265 	 4.000137 	 7.200000 	 4.000000 
 7.660446 	 7.039624 	 3.999813 	 7.040000 	 4.000000 
 7.473193 	 6.880606 	 4.000137 	 6.880000 	 4.000000 
 7.284967 	 6.719641 	 4.000137 	 6.720000 	 4.000000 
 7.107126 	 6.559650 	 4.000137 	 6.560000 	 4.000000 
 6.932206 	 6.400308 	 3.999813 	 6.400000 	 4.000000 
 6.768645 	 6.239668 	 3.999813 	 6.240000 	 4.000000 
 6.610276 	 6.080326 	 3.999813 	 6.080000 	 4.000000 
 6.452881 	 5.920336 	 3.999813 	 5.920000 	 4.000000 
 6.297758 	 5.759696 	 4.000137 	 5.760000 	 4.000000 
 6.140688 	 5.600031 	 4.000137 	 5.600000 	 4.000000 
 5.982644 	 5.440690 	 4.000137 	 5.440000 	 4.000000 
 5.821031 	 5.279726 	 4.000137 	 5.280000 	 4.000000 
 5.660717 	 5.119412 	 4.000137 	 5.120000 	 4.000000 
 5.502674 	 4.960072 	 4.000137 	 4.960000 	 4.000000 
 5.342035 	 4.799433 	 4.000137 	 4.800000 	 4.000000 
 5.183992 	 4.640093 	 4.000137 	 4.640000 	 4.000000 
 5.027572 	 4.479779 	 4.000137 	 4.480000 	 4.000000 
 4.868232 	 4.319790 	 3.999813 	 4.320000 	 4.000000 
 4.708243 	 4.159801 	 3.999813 	 4.160000 	 4.000000 
 4.546955 	 4.000137 	 4.000462 	 4.000000 	 4.000000 
 4.386642 	 3.839824 	 3.999813 	 3.840000 	 4.000000 
 4.226328 	 3.679511 	 3.999813 	 3.680000 	 4.000000 
 4.066664 	 3.519847 	 3.999813 	 3.520000 	 4.000000 
 3.910894 	 3.360183 	 4.000137 	 3.360000 	 4.000000 
 3.752204 	 3.199871 	 3.999813 	 3.200000 	 4.000000 
 3.591566 	 3.039558 	 3.999813 	 3.040000 	 4.000000 
 3.431902 	 2.880219 	 4.000137 	 2.880000 	 4.000000 
 3.272888 	 2.719582 	 3.999813 	 2.720000 	 4.000000 
 3.111601 	 2.559594 	 4.000137 	 2.560000 	 4.000000 
 2.955508 	 2.399282 	 4.000137 	 2.400000 	 4.000000 
 2.792274 	 2.239294 	 4.000137 	 2.240000 	 4.000000 
 2.632611 	 2.079631 	 4.000137 	 2.080000 	 4.000000 
 2.474246 	 1.919319 	 4.000137 	 1.920000 	 4.000000 
 2.311662 	 1.759332 	 4.000137 	 1.760000 	 4.000000 
 2.154270 	 1.599669 	 4.000137 	 1.600000 	 4.000000 
 1.995256 	 1.439357 	 4.000137 	 1.440000 	 4.000000 
 1.836243 	 1.279694 	 3.999813 	 1.280000 	 4.000000 
 1.679500 	 1.119382 	 4.000137 	 1.120000 	 4.000000 
 1.519837 	 0.959395 	 3.999813 	 0.960000 	 4.000000 
 1.360175 	 0.799083 	 3.999813 	 0.800000 	 4.000000 
 1.199538 	 0.639421 	 4.000137 	 0.640000 	 4.000000 
 1.039226 	 0.479433 	 4.000137 	 0.480000 	 4.000000 
 0.878915 	 0.319446 	 3.999813 	 0.320000 	 4.000000 
 0.718278 	 0.159459 	 4.000462 	 0.160000 	 4.000000 
 0.562510 	 -0.000203 	 3.999488 	 0.000000 	 4.000000 
 0.404145 	 0.159135 	 3.999813 	 0.160000 	 4.000000 
 0.290240 	 0.319446 	 4.000137 	 0.320000 	 4.000000 
 0.269146 	 0.479109 	 3.999813 	 0.480000 	 4.000000 
 0.333076 	 0.639421 	 3.999813 	 0.640000 	 4.000000 
 0.466128 	 0.799408 	 4.000137 	 0.800000 	 4.000000 
 0.639421 	 0.959395 	 3.999813 	 0.960000 	 4.000000 
 0.823747 	 1.119382 	 4.000137 	 1.120000 	 4.000000 
 1.011967 	 1.279370 	 3.999813 	 1.280000 	 4.000000 
 1.194670 	 1.439681 	 3.999813 	 1.440000 	 4.000000 
 1.366016 	 1.599669 	 4.000137 	 1.600000 	 4.000000 
 1.530871 	 1.759656 	 3.999813 	 1.760000 	 4.000000 
 1.689885 	 1.919644 	 4.000462 	 1.920000 	 4.000000 
 1.846627 	 2.079631 	 4.000137 	 2.080000 	 4.000000 
 2.004668 	 2.239294 	 3.999813 	 2.240000 	 4.000000 
 2.162708 	 2.399931 	 3.999813 	 2.400000 	 4.000000 
 2.318801 	 2.559594 	 3.999813 	 2.560000 	 4.000000 
 2.476842 	 2.719582 	 4.000137 	 2.720000 	 4.000000 
 2.635207 	 2.879895 	 3.999813 	 2.880000 	 4.000000 
 2.794546 	 3.039883 	 4.000137 	 3.040000 	 4.000000 
 2.956157 	 3.199871 	 4.000137 	 3.200000 	 4.000000 
 3.116145 	 3.359859 	 4.000137 	 3.360000 	 4.000000 
 3.276782 	 3.519847 	 4.000137 	 3.520000 	 4.000000 
 3.435797 	 3.679836 	 3.999813 	 3.680000 	 4.000000 
 3.595785 	 3.839175 	 4.000137 	 3.840000 	 4.000000 
 3.752204 	 3.999813 	 4.000462 	 4.000000 	 4.000000 
 3.909596 	 4.159801 	 4.000137 	 4.160000 	 4.000000 
 4.069260 	 4.319466 	 3.999813 	 4.320000 	 4.000000 
 4.227626 	 4.479455 	 4.000137 	 4.480000 	 4.000000 
 4.390860 	 4.640093 	 3.999813 	 4.640000 	 4.000000 
 4.553121 	 4.800082 	 3.999488 	 4.800000 	 4.000000 
 4.710514 	 4.959747 	 4.000137 	 4.960000 	 4.000000 
 4.870504 	 5.119412 	 3.999813 	 5.120000 	 4.000000 
 5.030818 	 5.280051 	 4.000137 	 5.280000 	 4.000000 
 5.186913 	 5.440365 	 3.999813 	 5.440000 	 4.000000 
 5.346578 	 5.599706 	 3.999813 	 5.600000 	 4.000000 
 5.506568 	 5.760021 	 3.999813 	 5.760000 	 4.000000 
 5.664611 	 5.920336 	 4.000462 	 5.920000 	 4.000000 
 5.826548 	 6.079677 	 4.000462 	 6.080000 	 4.000000 
 5.985241 	 6.239668 	 4.000137 	 6.240000 	 4.000000 
 6.143933 	 6.399983 	 4.000137 	 6.400000 	 4.000000 
 6.303275 	 6.559650 	 4.000137 	 6.560000 	 4.000000 
 6.461968 	 6.720615 	 3.999813 	 6.720000 	 4.000000 
 6.623581 	 6.880282 	 3.999813 	 6.880000 	 4.000000 
 6.782599 	 7.040273 	 4.000137 	 7.040000 	 4.000000 
 6.941617 	 7.199941 	 4.000137 	 7.200000 	 4.000000 
 7.099986 	 7.359933 	 3.999813 	 7.360000 	 4.000000 
 7.259005 	 7.519925 	 3.999813 	 7.520000 	 4.000000 
 7.417374 	 7.680566 	 3.999813 	 7.680000 	 4.000000 
 7.576717 	 7.839910 	 4.000137 	 7.840000 	 4.000000 
 7.737034 	 8.000228 	 3.999813 	 8.000000 	 4.000000 
 7.899948 	 7.840559 	 3.999813 	 7.840000 	 4.000000 
 8.012884 	 7.680242 	 4.000137 	 7.680000 	 4.000000 
 8.035601 	 7.520574 	 3.999813 	 7.520000 	 4.000000 
 7.967450 	 7.359933 	 4.000462 	 7.360000 	 4.000000 
 7.831148 	 7.200265 	 4.000137 	 7.200000 	 4.000000 
 7.659797 	 7.039949 	 3.999813 	 7.040000 	 4.000000 
 7.470921 	 6.880282 	 4.000137 	 6.880000 	 4.000000 
 7.285616 	 6.719966 	 3.999813 	 6.720000 	 4.000000 
 7.107450 	 6.560299 	 4.000137 	 6.560000 	 4.000000 
 6.934153 	 6.400308 	 4.000137 	 6.400000 	 4.000000 
 6.771241 	 6.240317 	 3.999813 	 6.240000 	 4.000000 
 6.611899 	 6.079677 	 4.000137 	 6.080000 	 4.000000 
 6.453530 	 5.920336 	 3.999813 	 5.920000 	 4.000000 
 6.295486 	 5.759696 	 4.000137 	 5.760000 	 4.000000 
 6.139065 	 5.599706 	 3.999813 	 5.600000 	 4.000000 
 5.980373 	 5.439716 	 3.999813 	 5.440000 	 4.000000 
 5.822979 	 5.280051 	 4.000137 	 5.280000 	 4.000000 
 5.660717 	 5.120061 	 3.999813 	 5.120000 	 4.000000 
 5.502998 	 4.960072 	 4.000137 	 4.960000 	 4.000000 
 5.343982 	 4.799433 	 4.000137 	 4.800000 	 4.000000 
 5.183992 	 4.640093 	 3.999813 	 4.640000 	 4.000000 
 5.026599 	 4.479779 	 3.999813 	 4.480000 	 4.000000 
 4.867583 	 4.319790 	 4.000137 	 4.320000 	 4.000000 
 4.707594 	 4.159801 	 3.999813 	 4.160000 	 4.000000 
 4.546306 	 3.999813 	 3.999813 	 4.000000 	 4.000000 
 4.386317 	 3.839500 	 3.999813 	 3.840000 	 4.000000 
 4.225355 	 3.679836 	 3.999813 	 3.680000 	 4.000000 
 4.067313 	 3.520172 	 3.999813 	 3.520000 	 4.000000 
 3.910245 	 3.359859 	 4.000137 	 3.360000 	 4.000000 
 3.751230 	 3.200520 	 3.999488 	 3.200000 	 4.000000 
 3.591242 	 3.039883 	 4.000137 	 3.040000 	 4.000000 
 3.432876 	 2.879570 	 3.999813 	 2.880000 	 4.000000 
 3.273212 	 2.719907 	 4.000137 	 2.720000 	 4.000000 
 3.110628 	 2.559919 	 3.999813 	 2.560000 	 4.000000 
 2.951938 	 2.399607 	 4.000137 	 2.400000 	 4.000000 
 2.790976 	 2.239294 	 3.999813 	 2.240000 	 4.000000 
 2.632611 	 2.079631 	 3.999813 	 2.080000 	 4.000000 
 2.474570 	 1.919644 	 3.999813 	 1.920000 	 4.000000 
 2.313934 	 1.759332 	 4.000137 	 1.760000 	 4.000000 
 2.156542 	 1.599344 	 4.000137 	 1.600000 	 4.000000 
 1.996230 	 1.439681 	 3.999813 	 1.440000 	 4.000000 
 1.836567 	 1.279694 	 4.000137 	 1.280000 	 4.000000 
 1.678527 	 1.119058 	 3.999813 	 1.120000 	 4.000000 
 1.519188 	 0.959395 	 4.000137 	 0.960000 	 4.000000 
 1.359525 	 0.799408 	 4.000137 	 0.800000 	 4.000000 
 1.199538 	 0.640070 	 3.999813 	 0.640000 	 4.000000 
 1.037279 	 0.479433 	 3.999813 	 0.480000 	 4.000000 
 0.878915 	 0.319122 	 3.999813 	 0.320000 	 4.000000 
 0.720225 	 0.159784 	 3.999813 	 0.160000 	 4.000000 
 0.562510 	 0.000121 	 3.999813 	 0.000000 	 4.000000 
 0.404470 	 0.159459 	 4.000137 	 0.160000 	 4.000000 
 0.290240 	 0.319446 	 3.999813 	 0.320000 	 4.000000 
 0.269146 	 0.479758 	 3.999813 	 0.480000 	 4.000000 
 0.333725 	 0.639421 	 3.999813 	 0.640000 	 4.000000 
 0.465804 	 0.799408 	 3.999813 	 0.800000 	 4.000000 
 0.636824 	 0.959395 	 4.000137 	 0.960000 	 4.000000 
 0.823747 	 1.119382 	 4.000462 	 1.120000 	 4.000000 
 1.013914 	 1.279370 	 4.000137 	 1.280000 	 4.000000 
 1.194021 	 1.439357 	 3.999813 	 1.440000 	 4.000000 
 1.366340 	 1.599669 	 4.000462 	 1.600000 	 4.000000 
 1.532494 	 1.759332 	 3.999813 	 1.760000 	 4.000000 
 1.690858 	 1.919319 	 4.000137 	 1.920000 	 4.000000 
 1.847601 	 2.079307 	 4.000137 	 2.080000 	 4.000000 
 2.003694 	 2.239294 	 4.000137 	 2.240000 	 4.000000 
 2.159138 	 2.399282 	 4.000137 	 2.400000 	 4.000000 
 2.318801 	 2.559270 	 4.000137 	 2.560000 	 4.000000 
 2.477167 	 2.719258 	 3.999813 	 2.720000 	 4.000000 
 2.637479 	 2.879895 	 4.000137 	 2.880000 	 4.000000 
 2.796493 	 3.039558 	 3.999813 	 3.040000 	 4.000000 
 2.956157 	 3.200195 	 3.999813 	 3.200000 	 4.000000 
 3.115820 	 3.359859 	 3.999488 	 3.360000 	 4.000000 
 3.275484 	 3.519847 	 4.000137 	 3.520000 	 4.000000 
 3.435147 	 3.680160 	 4.000137 	 3.680000 	 4.000000 
 3.594162 	 3.839500 	 3.999813 	 3.840000 	 4.000000 
 3.752853 	 3.999813 	 4.000137 	 4.000000 	 4.000000 
 3.911219 	 4.159801 	 3.999813 	 4.160000 	 4.000000 
 4.069909 	 4.319466 	 3.999813 	 4.320000 	 4.000000 
 4.228924 	 4.479779 	 4.000137 	 4.480000 	 4.000000 
 4.390860 	 4.639768 	 3.999813 	 4.640000 	 4.000000 
 4.552148 	 4.800082 	 3.999813 	 4.800000 	 4.000000 
 4.712461 	 4.959747 	 4.000137 	 4.960000 	 4.000000 
 4.870504 	 5.119737 	 4.000137 	 5.120000 	 4.000000 
 5.029195 	 5.280051 	 4.000462 	 5.280000 	 4.000000 
 5.187562 	 5.440041 	 4.000137 	 5.440000 	 4.000000 
 5.345280 	 5.599706 	 4.000137 	 5.600000 	 4.000000 
 5.504296 	 5.760021 	 4.000137 	 5.760000 	 4.000000 
 5.664935 	 5.920336 	 4.000137 	 5.920000 	 4.000000 
 5.826873 	 6.079677 	 4.000137 	 6.080000 	 4.000000 
 5.986539 	 6.240317 	 4.000137 	 6.240000 	 4.000000 
 6.146205 	 6.399983 	 3.999813 	 6.400000 	 4.000000 
 6.304573 	 6.559974 	 3.999813 	 6.560000 	 4.000000 
 6.462617 	 6.719966 	 4.000462 	 6.720000 	 4.000000 
 6.623257 	 6.880282 	 4.000137 	 6.880000 	 4.000000 
 6.780003 	 7.040273 	 4.000137 	 7.040000 	 4.000000 
 6.939345 	 7.199941 	 4.000462 	 7.200000 	 4.000000 
 7.100635 	 7.359608 	 4.000462 	 7.360000 	 4.000000 
 7.258680 	 7.520574 	 4.000137 	 7.520000 	 4.000000 
 7.418672 	 7.680242 	 4.000137 	 7.680000 	 4.000000 
 7.577691 	 7.839910 	 4.000137 	 7.840000 	 4.000000 
 7.738657 	 8.000552 	 4.000137 	 8.000000 	 4.000000 
 7.902869 	 7.840235 	 4.000137 	 7.840000 	 4.000000 
 8.010612 	 7.680566 	 4.000462 	 7.680000 	 4.000000 
 8.035926 	 7.519600 	 4.000462 	 7.520000 	 4.000000 
 7.965178 	 7.359933 	 4.000137 	 7.360000 	 4.000000 
 7.830499 	 7.200265 	 3.999813 	 7.200000 	 4.000000 
 7.658498 	 7.040273 	 3.999813 	 7.040000 	 4.000000 
 7.471246 	 6.880606 	 4.000137 	 6.880000 	 4.000000 
 7.288212 	 6.719966 	 4.000462 	 6.720000 	 4.000000 
 7.107126 	 6.559974 	 3.999813 	 6.560000 	 4.000000 
 6.935451 	 6.400632 	 4.000137 	 6.400000 	 4.000000 
 6.773512 	 6.240317 	 4.000137 	 6.240000 	 4.000000 
 6.612223 	 6.080002 	 3.999813 	 6.080000 	 4.000000 
 6.451258 	 5.920011 	 4.000137 	 5.920000 	 4.000000 
 6.294188 	 5.759696 	 4.000137 	 5.760000 	 4.000000 
 6.135820 	 5.600355 	 4.000137 	 5.600000 	 4.000000 
 5.979075 	 5.440041 	 4.000137 	 5.440000 	 4.000000 
 5.822654 	 5.280051 	 4.000137 	 5.280000 	 4.000000 
 5.663637 	 5.120061 	 3.999813 	 5.120000 	 4.000000 
 5.504621 	 4.959747 	 3.999813 	 4.960000 	 4.000000 
 5.345929 	 4.799433 	 3.999813 	 4.800000 	 4.000000 
 5.183992 	 4.640417 	 3.999813 	 4.640000 	 4.000000 
 5.025625 	 4.479779 	 3.999813 	 4.480000 	 4.000000 
 4.866285 	 4.319790 	 3.999813 	 4.320000 	 4.000000 
 4.704997 	 4.160126 	 3.999488 	 4.160000 	 4.000000 
 4.546955 	 4.000137 	 4.000137 	 4.000000 	 4.000000 
 4.386642 	 3.839500 	 3.999813 	 3.840000 	 4.000000 
 4.227302 	 3.679836 	 3.999813 	 3.680000 	 4.000000 
 4.067313 	 3.520172 	 3.999813 	 3.520000 	 4.000000 
 3.908298 	 3.360183 	 3.999813 	 3.360000 	 4.000000 
 3.753502 	 3.199871 	 4.000137 	 3.200000 	 4.000000 
 3.592864 	 3.039883 	 3.999813 	 3.040000 	 4.000000 
 3.431902 	 2.879895 	 3.999813 	 2.880000 	 4.000000 
 3.271590 	 2.719258 	 4.000137 	 2.720000 	 4.000000 
 3.109979 	 2.559919 	 4.000137 	 2.560000 	 4.000000 
 2.952262 	 2.399607 	 4.000137 	 2.400000 	 4.000000 
 2.790003 	 2.240268 	 4.000462 	 2.240000 	 4.000000 
 2.632611 	 2.079631 	 4.000137 	 2.080000 	 4.000000 
 2.476193 	 1.919644 	 4.000137 	 1.920000 	 4.000000 
 2.315232 	 1.759656 	 4.000137 	 1.760000 	 4.000000 
 2.156867 	 1.599344 	 4.000137 	 1.600000 	 4.000000 
 1.998177 	 1.439681 	 4.000137 	 1.440000 	 4.000000 
 1.835918 	 1.279370 	 4.000137 	 1.280000 	 4.000000 
 1.676904 	 1.119382 	 3.999813 	 1.120000 	 4.000000 
 1.516592 	 0.959720 	 4.000137 	 0.960000 	 4.000000 
 1.359201 	 0.799083 	 3.999813 	 0.800000 	 4.000000 
 1.200187 	 0.639745 	 4.000462 	 0.640000 	 4.000000 
 1.038902 	 0.479433 	 3.999813 	 0.480000 	 4.000000 
 0.879888 	 0.319446 	 4.000137 	 0.320000 	 4.000000 
 0.723146 	 0.159784 	 4.000137 	 0.160000 	 4.000000 
 0.562510 	 -0.000203 	 4.000137 	 0.000000 	 4.000000 
 0.403496 	 0.160108 	 3.999813 	 0.160000 	 4.000000 
 0.290564 	 0.319122 	 4.000462 	 0.320000 	 4.000000 
 0.265901 	 0.479433 	 3.999813 	 0.480000 	 4.000000 
 0.333076 	 0.639421 	 4.000137 	 0.640000 	 4.000000 
 0.465479 	 0.799083 	 4.000137 	 0.800000 	 4.000000 
 0.637798 	 0.959395 	 4.000137 	 0.960000 	 4.000000 
 0.824071 	 1.119382 	 3.999813 	 1.120000 	 4.000000 
 1.013265 	 1.279370 	 3.999813 	 1.280000 	 4.000000 
 1.196293 	 1.440006 	 3.999813 	 1.440000 	 4.000000 
 1.366016 	 1.599669 	 3.999813 	 1.600000 	 4.000000 
 1.531520 	 1.759332 	 4.000137 	 1.760000 	 4.000000 
 1.689236 	 1.919319 	 4.000462 	 1.920000 	 4.000000 
 1.845654 	 2.078982 	 3.999813 	 2.080000 	 4.000000 
 2.002720 	 2.239294 	 4.000137 	 2.240000 	 4.000000 
 2.158489 	 2.399607 	 4.000137 	 2.400000 	 4.000000 
 2.317828 	 2.559594 	 4.000137 	 2.560000 	 4.000000 
 2.477167 	 2.719907 	 4.000462 	 2.720000 	 4.000000 
 2.637479 	 2.879895 	 4.000137 	 2.880000 	 4.000000 
 2.797791 	 3.039883 	 3.999813 	 3.040000 	 4.000000 
 2.957455 	 3.200195 	 3.999813 	 3.200000 	 4.000000 
 3.114198 	 3.359859 	 3.999813 	 3.360000 	 4.000000 
 3.274510 	 3.519523 	 3.999813 	 3.520000 	 4.000000 
 3.433200 	 3.679511 	 3.999813 	 3.680000 	 4.000000 
 3.591891 	 3.839500 	 4.000137 	 3.840000 	 4.000000 
 3.753177 	 3.999813 	 4.000137 	 4.000000 	 4.000000 
 3.912517 	 4.159801 	 4.000137 	 4.160000 	 4.000000 
 4.071207 	 4.319790 	 3.999813 	 4.320000 	 4.000000 
 4.231845 	 4.480104 	 4.000137 	 4.480000 	 4.000000 
 4.391185 	 4.640093 	 4.000137 	 4.640000 	 4.000000 
 4.552148 	 4.799433 	 4.000137 	 4.800000 	 4.000000 
 4.710839 	 4.960072 	 4.000137 	 4.960000 	 4.000000 
 4.869530 	 5.119412 	 4.000137 	 5.120000 	 4.000000 
 5.028221 	 5.279402 	 4.000137 	 5.280000 	 4.000000 
 5.186588 	 5.440041 	 4.000137 	 5.440000 	 4.000000 
 5.346254 	 5.600031 	 4.000137 	 5.600000 	 4.000000 
 5.504945 	 5.759696 	 4.000462 	 5.760000 	 4.000000 
 5.666558 	 5.920011 	 3.999813 	 5.920000 	 4.000000 
 5.827522 	 6.079677 	 4.000137 	 6.080000 	 4.000000 
 5.988161 	 6.239992 	 4.000137 	 6.240000 	 4.000000 
 6.148476 	 6.399983 	 3.999813 	 6.400000 	 4.000000 
 6.304248 	 6.559974 	 3.999813 	 6.560000 	 4.000000 
 6.460994 	 6.719641 	 4.000137 	 6.720000 	 4.000000 
 6.621634 	 6.880282 	 4.000137 	 6.880000 	 4.000000 
 6.779678 	 7.040273 	 4.000137 	 7.040000 	 4.000000 
 6.940644 	 7.199941 	 4.000462 	 7.200000 	 4.000000 
 7.102907 	 7.359933 	 3.999813 	 7.360000 	 4.000000 
 7.259654 	 7.520574 	 3.999813 	 7.520000 	 4.000000 
 7.420619 	 7.680242 	 3.999813 	 7.680000 	 4.000000 
 7.580287 	 7.839910 	 3.999813 	 7.840000 	 4.000000 
 7.737683 	 8.000552 	 4.000137 	 8.000000 	 4.000000 
 7.898001 	 7.840235 	 4.000137 	 7.840000 	 4.000000 
 8.011586 	 7.680242 	 3.999813 	 7.680000 	 4.000000 
 8.032680 	 7.519600 	 4.000462 	 7.520000 	 4.000000 
 7.965827 	 7.360582 	 4.000137 	 7.360000 	 4.000000 
 7.832121 	 7.199941 	 4.000137 	 7.200000 	 4.000000 
 7.658823 	 7.040273 	 3.999813 	 7.040000 	 4.000000 
 7.471895 	 6.880606 	 4.000137 	 6.880000 	 4.000000 
 7.286589 	 6.719966 	 4.000137 	 6.720000 	 4.000000 
 7.107775 	 6.559974 	 3.999813 	 6.560000 	 4.000000 
 6.934802 	 6.400308 	 3.999813 	 6.400000 	 4.000000 
 6.771890 	 6.239992 	 4.000137 	 6.240000 	 4.000000 
 6.610276 	 6.080002 	 3.999813 	 6.080000 	 4.000000 
 6.450609 	 5.919687 	 4.000137 	 5.920000 	 4.000000 
 6.294513 	 5.760021 	 4.000137 	 5.760000 	 4.000000 
 6.136145 	 5.600031 	 4.000137 	 5.600000 	 4.000000 
 5.981671 	 5.440365 	 4.000137 	 5.440000 	 4.000000 
 5.823952 	 5.279726 	 4.000137 	 5.280000 	 4.000000 
 5.663313 	 5.119737 	 3.999813 	 5.120000 	 4.000000 
 5.505594 	 4.959423 	 3.999813 	 4.960000 	 4.000000 
 5.345280 	 4.799109 	 3.999813 	 4.800000 	 4.000000 
 5.184641 	 4.640093 	 4.000137 	 4.640000 	 4.000000 
 5.024327 	 4.479779 	 3.999813 	 4.480000 	 4.000000 
 4.863689 	 4.319790 	 4.000462 	 4.320000 	 4.000000 
 4.705322 	 4.160126 	 3.999813 	 4.160000 	 4.000000 
 4.547929 	 4.000137 	 3.999813 	 4.000000 	 4.000000 
 4.387291 	 3.839824 	 4.000137 	 3.840000 	 4.000000 
 4.227951 	 3.680485 	 3.999813 	 3.680000 	 4.000000 
 4.069585 	 3.519847 	 4.000137 	 3.520000 	 4.000000 
 3.909921 	 3.359859 	 4.000137 	 3.360000 	 4.000000 
 3.749607 	 3.199546 	 4.000462 	 3.200000 	 4.000000 
 3.589619 	 3.039558 	 4.000137 	 3.040000 	 4.000000 
 3.430929 	 2.879570 	 3.999813 	 2.880000 	 4.000000 
 3.270940 	 2.719907 	 4.000137 	 2.720000 	 4.000000 
 3.110952 	 2.559270 	 3.999813 	 2.560000 	 4.000000 
 2.950640 	 2.399931 	 4.000462 	 2.400000 	 4.000000 
 2.790976 	 2.239943 	 4.000137 	 2.240000 	 4.000000 
 2.633909 	 2.079631 	 4.000137 	 2.080000 	 4.000000 
 2.475544 	 1.919644 	 3.999813 	 1.920000 	 4.000000 
 2.315881 	 1.759981 	 4.000137 	 1.760000 	 4.000000 
 2.157516 	 1.599344 	 4.000462 	 1.600000 	 4.000000 
 1.996555 	 1.439681 	 3.999813 	 1.440000 	 4.000000 
 1.834944 	 1.279694 	 4.000137 	 1.280000 	 4.000000 
 1.676580 	 1.119058 	 4.000137 	 1.120000 	 4.000000 
 1.515943 	 0.959395 	 3.999813 	 0.960000 	 4.000000 
 1.359525 	 0.799083 	 3.999813 	 0.800000 	 4.000000 
 1.201161 	 0.639745 	 3.999813 	 0.640000 	 4.000000 
 1.040200 	 0.479758 	 4.000137 	 0.480000 	 4.000000 
 0.882160 	 0.319446 	 4.000137 	 0.320000 	 4.000000 
 0.723795 	 0.159459 	 3.999813 	 0.160000 	 4.000000 
 0.561536 	 -0.000203 	 3.999813 	 0.000000 	 4.000000 
 0.402847 	 0.159459 	 4.000137 	 0.160000 	 4.000000 
 0.287968 	 0.319446 	 4.000137 	 0.320000 	 4.000000 
 0.266550 	 0.479758 	 4.000137 	 0.480000 	 4.000000 
 0.334374 	 0.639745 	 4.000137 	 0.640000 	 4.000000 
 0.466128 	 0.799083 	 4.000462 	 0.800000 	 4.000000 
 0.638123 	 0.959395 	 3.999813 	 0.960000 	 4.000000 
 0.826992 	 1.119382 	 4.000137 	 1.120000 	 4.000000 
 1.014563 	 1.279694 	 4.000137 	 1.280000 	 4.000000 
 1.195319 	 1.439357 	 3.999813 	 1.440000 	 4.000000 
 1.365367 	 1.599344 	 3.999813 	 1.600000 	 4.000000 
 1.529573 	 1.759332 	 4.000137 	 1.760000 	 4.000000 
 1.688911 	 1.919319 	 4.000137 	 1.920000 	 4.000000 
 1.845654 	 2.079307 	 3.999813 	 2.080000 	 4.000000 
 2.003369 	 2.239619 	 3.999813 	 2.240000 	 4.000000 
 2.157840 	 2.399607 	 3.999813 	 2.400000 	 4.000000 
 2.319126 	 2.559594 	 3.999813 	 2.560000 	 4.000000 
 2.480087 	 2.719582 	 4.000137 	 2.720000 	 4.000000 
 2.639101 	 2.880219 	 3.999813 	 2.880000 	 4.000000 
 2.798765 	 3.039558 	 3.999488 	 3.040000 	 4.000000 
 2.955832 	 3.200195 	 4.000137 	 3.200000 	 4.000000 
 3.114847 	 3.359534 	 4.000137 	 3.360000 	 4.000000 
 3.273861 	 3.519198 	 3.999813 	 3.520000 	 4.000000 
 3.431253 	 3.679511 	 3.999813 	 3.680000 	 4.000000 
 3.592540 	 3.839824 	 4.000137 	 3.840000 	 4.000000 
 3.752528 	 3.999813 	 4.000137 	 4.000000 	 4.000000 
 3.913815 	 4.160126 	 4.000137 	 4.160000 	 4.000000 
 4.072181 	 4.320115 	 4.000137 	 4.320000 	 4.000000 
 4.232819 	 4.479779 	 3.999813 	 4.480000 	 4.000000 
 4.389238 	 4.640093 	 3.999813 	 4.640000 	 4.000000 
 4.549876 	 4.799758 	 3.999813 	 4.800000 	 4.000000 
 4.709865 	 4.959423 	 4.000137 	 4.960000 	 4.000000 
 4.867907 	 5.119737 	 3.999813 	 5.120000 	 4.000000 
 5.028221 	 5.280051 	 3.999813 	 5.280000 	 4.000000 
 5.187237 	 5.440041 	 4.000137 	 5.440000 	 4.000000 
 5.344306 	 5.600031 	 3.999813 	 5.600000 	 4.000000 
 5.506243 	 5.760021 	 4.000137 	 5.760000 	 4.000000 
 5.667856 	 5.920336 	 3.999813 	 5.920000 	 4.000000 
 5.826224 	 6.080002 	 4.000137 	 6.080000 	 4.000000 
 5.986214 	 6.239668 	 4.000137 	 6.240000 	 4.000000 
 6.147178 	 6.399983 	 4.000137 	 6.400000 	 4.000000 
 6.302950 	 6.560299 	 4.000137 	 6.560000 	 4.000000 
 6.460670 	 6.719641 	 3.999813 	 6.720000 	 4.000000 
 6.620985 	 6.880282 	 4.000137 	 6.880000 	 4.000000 
 6.780003 	 7.039949 	 4.000137 	 7.040000 	 4.000000 
 6.941293 	 7.200265 	 4.000137 	 7.200000 	 4.000000 
 7.103881 	 7.360582 	 3.999813 	 7.360000 	 4.000000 
 7.259978 	 7.520249 	 4.000137 	 7.520000 	 4.000000 
 7.420619 	 7.680242 	 4.000137 	 7.680000 	 4.000000 
 7.579638 	 7.839910 	 4.000137 	 7.840000 	 4.000000 
 7.736710 	 8.000552 	 4.000462 	 8.000000 	 4.000000 
 7.895080 	 7.839586 	 4.000462 	 7.840000 	 4.000000 
 8.009963 	 7.680566 	 4.000137 	 7.680000 	 4.000000 
 8.032031 	 7.519925 	 4.000137 	 7.520000 	 4.000000 
 7.966152 	 7.359933 	 3.999813 	 7.360000 	 4.000000 
 7.831472 	 7.200265 	 3.999813 	 7.200000 	 4.000000 
 7.663042 	 7.040273 	 4.000137 	 7.040000 	 4.000000 
 7.474166 	 6.880282 	 3.999813 	 6.880000 	 4.000000 
 7.286914 	 6.719966 	 4.000137 	 6.720000 	 4.000000 
 7.108099 	 6.559974 	 4.000137 	 6.560000 	 4.000000 
 6.936425 	 6.399983 	 3.999813 	 6.400000 	 4.000000 
 6.770592 	 6.239992 	 4.000137 	 6.240000 	 4.000000 
 6.609302 	 6.079677 	 4.000462 	 6.080000 	 4.000000 
 6.450609 	 5.920011 	 4.000137 	 5.920000 	 4.000000 
 6.294837 	 5.760021 	 3.999813 	 5.760000 	 4.000000 
 6.138092 	 5.600031 	 3.999813 	 5.600000 	 4.000000 
 5.981022 	 5.440041 	 3.999813 	 5.440000 	 4.000000 
 5.824926 	 5.280375 	 4.000137 	 5.280000 	 4.000000 
 5.661366 	 5.119412 	 4.000137 	 5.120000 	 4.000000 
 5.506243 	 4.960072 	 4.000137 	 4.960000 	 4.000000 
 5.344631 	 4.799758 	 4.000462 	 4.800000 	 4.000000 
 5.181396 	 4.640093 	 4.000137 	 4.640000 	 4.000000 
 5.021731 	 4.479455 	 3.999813 	 4.480000 	 4.000000 
 4.863040 	 4.320115 	 4.000137 	 4.320000 	 4.000000 
 4.705322 	 4.160126 	 4.000137 	 4.160000 	 4.000000 
 4.549551 	 4.000137 	 4.000137 	 4.000000 	 4.000000 
 4.388264 	 3.839500 	 4.000462 	 3.840000 	 4.000000 
 4.230223 	 3.679836 	 3.999813 	 3.680000 	 4.000000 
 4.070883 	 3.519847 	 3.999813 	 3.520000 	 4.000000 
 3.908947 	 3.359859 	 3.999813 	 3.360000 	 4.000000 
 3.749932 	 3.200195 	 3.999813 	 3.200000 	 4.000000 
 3.588970 	 3.039883 	 3.999813 	 3.040000 	 4.000000 
 3.429955 	 2.880219 	 4.000137 	 2.880000 	 4.000000 
 3.271265 	 2.719582 	 4.000137 	 2.720000 	 4.000000 
 3.111601 	 2.559594 	 3.999813 	 2.560000 	 4.000000 
 2.951289 	 2.399607 	 4.000137 	 2.400000 	 4.000000 
 2.794222 	 2.239619 	 3.999813 	 2.240000 	 4.000000 
 2.633585 	 2.079307 	 3.999813 	 2.080000 	 4.000000 
 2.473272 	 1.919968 	 3.999813 	 1.920000 	 4.000000 
 2.314583 	 1.759656 	 4.000137 	 1.760000 	 4.000000 
 2.157840 	 1.599344 	 3.999813 	 1.600000 	 4.000000 
 1.995581 	 1.439357 	 4.000137 	 1.440000 	 4.000000 
 1.834944 	 1.279370 	 3.999813 	 1.280000 	 4.000000 
 1.676255 	 1.119382 	 4.000137 	 1.120000 	 4.000000 
 1.515619 	 0.959720 	 4.000462 	 0.960000 	 4.000000 
 1.358227 	 0.799408 	 4.000137 	 0.800000 	 4.000000 
 1.200836 	 0.640070 	 4.000137 	 0.640000 	 4.000000 
 1.041498 	 0.479758 	 3.999813 	 0.480000 	 4.000000 
 0.882484 	 0.319446 	 4.000137 	 0.320000 	 4.000000 
 0.721524 	 0.159459 	 3.999813 	 0.160000 	 4.000000 
 0.561212 	 -0.000852 	 4.000137 	 0.000000 	 4.000000 
 0.399927 	 0.159459 	 4.000137 	 0.160000 	 4.000000 
 0.287968 	 0.319446 	 4.000137 	 0.320000 	 4.000000 
 0.265576 	 0.479758 	 3.999813 	 0.480000 	 4.000000 
 0.335023 	 0.639421 	 4.000137 	 0.640000 	 4.000000 
 0.468724 	 0.799732 	 3.999813 	 0.800000 	 4.000000 
 0.641043 	 0.959395 	 4.000137 	 0.960000 	 4.000000 
 0.827316 	 1.119058 	 3.999813 	 1.120000 	 4.000000 
 1.012616 	 1.279370 	 4.000137 	 1.280000 	 4.000000 
 1.192723 	 1.439357 	 3.999813 	 1.440000 	 4.000000 
 1.365691 	 1.599344 	 4.000137 	 1.600000 	 4.000000 
 1.528599 	 1.759981 	 4.000137 	 1.760000 	 4.000000 
 1.689236 	 1.919319 	 4.000462 	 1.920000 	 4.000000 
 1.844680 	 2.079307 	 4.000137 	 2.080000 	 4.000000 
 2.003045 	 2.239943 	 4.000462 	 2.240000 	 4.000000 
 2.163032 	 2.399282 	 3.999813 	 2.400000 	 4.000000 
 2.319126 	 2.559919 	 3.999813 	 2.560000 	 4.000000 
 2.481061 	 2.719582 	 3.999813 	 2.720000 	 4.000000 
 2.638128 	 2.880219 	 3.999813 	 2.880000 	 4.000000 
 2.798116 	 3.039883 	 4.000137 	 3.040000 	 4.000000 
 2.955832 	 3.200195 	 3.999813 	 3.200000 	 4.000000 
 3.113548 	 3.359859 	 4.000137 	 3.360000 	 4.000000 
 3.274510 	 3.519847 	 4.000137 	 3.520000 	 4.000000 
 3.431578 	 3.680160 	 4.000137 	 3.680000 	 4.000000 
 3.593189 	 3.839824 	 4.000137 	 3.840000 	 4.000000 
 3.754151 	 3.999813 	 3.999813 	 4.000000 	 4.000000 
 3.914788 	 4.160126 	 3.999813 	 4.160000 	 4.000000 
 4.073154 	 4.319466 	 3.999813 	 4.320000 	 4.000000 
 4.231196 	 4.479779 	 4.000137 	 4.480000 	 4.000000 
 4.389562 	 4.640093 	 3.999813 	 4.640000 	 4.000000 
 4.547929 	 4.799433 	 4.000137 	 4.800000 	 4.000000 
 4.707594 	 4.959747 	 3.999813 	 4.960000 	 4.000000 
 4.867907 	 5.119412 	 4.000137 	 5.120000 	 4.000000 
 5.030168 	 5.279402 	 4.000137 	 5.280000 	 4.000000 
 5.188211 	 5.440365 	 3.999813 	 5.440000 	 4.000000 
 5.348850 	 5.600031 	 4.000137 	 5.600000 	 4.000000 
 5.506893 	 5.760021 	 4.000137 	 5.760000 	 4.000000 
 5.665909 	 5.920011 	 4.000137 	 5.920000 	 4.000000 
 5.826873 	 6.080002 	 3.999813 	 6.080000 	 4.000000 
 5.985241 	 6.239992 	 4.000137 	 6.240000 	 4.000000 
 6.143284 	 6.400308 	 4.000137 	 6.400000 	 4.000000 
 6.303275 	 6.559974 	 4.000137 	 6.560000 	 4.000000 
 6.460994 	 6.719966 	 4.000137 	 6.720000 	 4.000000 
 6.620336 	 6.880606 	 4.000137 	 6.880000 	 4.000000 
 6.780328 	 7.039949 	 4.000462 	 7.040000 	 4.000000 
 6.941293 	 7.200265 	 4.000137 	 7.200000 	 4.000000 
 7.102582 	 7.360257 	 3.999813 	 7.360000 	 4.000000 
 7.260952 	 7.519925 	 4.000137 	 7.520000 	 4.000000 
 7.419970 	 7.680242 	 4.000137 	 7.680000 	 4.000000 
 7.578340 	 7.839910 	 4.000137 	 7.840000 	 4.000000 
 7.737359 	 8.000228 	 3.999813 	 8.000000 	 4.000000 
 7.897027 	 7.840235 	 4.000137 	 7.840000 	 4.000000 
 8.010288 	 7.680242 	 4.000462 	 7.680000 	 4.000000 
 8.033979 	 7.519925 	 3.999813 	 7.520000 	 4.000000 
 7.967775 	 7.359933 	 4.000137 	 7.360000 	 4.000000 
 7.832770 	 7.200265 	 3.999813 	 7.200000 	 4.000000 
 7.663691 	 7.039949 	 3.999813 	 7.040000 	 4.000000 
 7.474815 	 6.879957 	 4.000137 	 6.880000 	 4.000000 
 7.284967 	 6.719966 	 4.000137 	 6.720000 	 4.000000 
 7.106477 	 6.559974 	 4.000137 	 6.560000 	 4.000000 
 6.932855 	 6.400308 	 3.999813 	 6.400000 	 4.000000 
 6.767996 	 6.239992 	 4.000137 	 6.240000 	 4.000000 
 6.610600 	 6.080002 	 3.999813 	 6.080000 	 4.000000 
 6.452232 	 5.920336 	 4.000137 	 5.920000 	 4.000000 
 6.295162 	 5.760345 	 4.000137 	 5.760000 	 4.000000 
 6.140363 	 5.600355 	 4.000137 	 5.600000 	 4.000000 
 5.982644 	 5.440365 	 3.999813 	 5.440000 	 4.000000 
 5.822979 	 5.279726 	 3.999813 	 5.280000 	 4.000000 
 5.663962 	 5.120061 	 3.999813 	 5.120000 	 4.000000 
 5.503323 	 4.959747 	 3.999813 	 4.960000 	 4.000000 
 5.340412 	 4.799109 	 4.000137 	 4.800000 	 4.000000 
 5.183019 	 4.640093 	 3.999813 	 4.640000 	 4.000000 
 5.022704 	 4.479779 	 4.000137 	 4.480000 	 4.000000 
 4.865960 	 4.319790 	 4.000137 	 4.320000 	 4.000000 
 4.706944 	 4.159801 	 4.000137 	 4.160000 	 4.000000 
 4.549227 	 4.000137 	 3.999813 	 4.000000 	 4.000000 
 4.389887 	 3.840149 	 4.000462 	 3.840000 	 4.000000 
 4.231521 	 3.679836 	 3.999813 	 3.680000 	 4.000000 
 4.068936 	 3.519847 	 4.000137 	 3.520000 	 4.000000 
 3.907973 	 3.359859 	 4.000137 	 3.360000 	 4.000000 
 3.749607 	 3.200195 	 3.999813 	 3.200000 	 4.000000 
 3.587672 	 3.040207 	 3.999813 	 3.040000 	 4.000000 
 3.428657 	 2.880219 	 3.999813 	 2.880000 	 4.000000 
 3.270616 	 2.719582 	 3.999813 	 2.720000 	 4.000000 
 3.112575 	 2.559919 	 4.000137 	 2.560000 	 4.000000 
 2.955183 	 2.399607 	 4.000137 	 2.400000 	 4.000000 
 2.794222 	 2.239619 	 4.000137 	 2.240000 	 4.000000 
 2.633909 	 2.079307 	 4.000462 	 2.080000 	 4.000000 
 2.475544 	 1.919644 	 4.000137 	 1.920000 	 4.000000 
 2.313285 	 1.759332 	 3.999813 	 1.760000 	 4.000000 
 2.154595 	 1.599993 	 3.999813 	 1.600000 	 4.000000 
 1.996555 	 1.439681 	 4.000137 	 1.440000 	 4.000000 
 1.834944 	 1.279370 	 3.999813 	 1.280000 	 4.000000 
 1.675931 	 1.119382 	 3.999813 	 1.120000 	 4.000000 
 1.517566 	 0.959720 	 4.000137 	 0.960000 	 4.000000 
 1.359525 	 0.799083 	 4.000137 	 0.800000 	 4.000000 
 1.202459 	 0.639421 	 3.999813 	 0.640000 	 4.000000 
 1.040524 	 0.479758 	 3.999813 	 0.480000 	 4.000000 
 0.881186 	 0.319446 	 4.000137 	 0.320000 	 4.000000 
 0.720550 	 0.159459 	 3.999488 	 0.160000 	 4.000000 
 0.558291 	 -0.000528 	 4.000137 	 0.000000 	 4.000000 
 0.402523 	 0.159135 	 4.000137 	 0.160000 	 4.000000 
 0.286995 	 0.319771 	 4.000137 	 0.320000 	 4.000000 
 0.267848 	 0.479758 	 3.999813 	 0.480000 	 4.000000 
 0.335023 	 0.640070 	 3.999813 	 0.640000 	 4.000000 
 0.469373 	 0.799083 	 3.999813 	 0.800000 	 4.000000 
 0.641692 	 0.959720 	 3.999813 	 0.960000 	 4.000000 
 0.826667 	 1.119058 	 4.000137 	 1.120000 	 4.000000 
 1.010669 	 1.279694 	 4.000137 	 1.280000 	 4.000000 
 1.194021 	 1.439681 	 4.000462 	 1.440000 	 4.000000 
 1.364069 	 1.599669 	 4.000137 	 1.600000 	 4.000000 
 1.528924 	 1.759332 	 3.999813 	 1.760000 	 4.000000 
 1.689560 	 1.919644 	 4.000137 	 1.920000 	 4.000000 
 1.847276 	 2.079631 	 4.000137 	 2.080000 	 4.000000 
 2.004668 	 2.239294 	 4.000137 	 2.240000 	 4.000000 
 2.162383 	 2.399607 	 3.999813 	 2.400000 	 4.000000 
 2.319775 	 2.559594 	 3.999813 	 2.560000 	 4.000000 
 2.478140 	 2.719582 	 4.000137 	 2.720000 	 4.000000 
 2.638128 	 2.879895 	 3.999813 	 2.880000 	 4.000000 
 2.796169 	 3.039883 	 4.000137 	 3.040000 	 4.000000 
 2.956806 	 3.199546 	 4.000137 	 3.200000 	 4.000000 
 3.117118 	 3.359210 	 4.000137 	 3.360000 	 4.000000 
 3.273537 	 3.519847 	 3.999813 	 3.520000 	 4.000000 
 3.432551 	 3.680160 	 4.000137 	 3.680000 	 4.000000 
 3.594487 	 3.839500 	 4.000137 	 3.840000 	 4.000000 
 3.754151 	 3.999813 	 3.999813 	 4.000000 	 4.000000 
 3.913815 	 4.159801 	 4.000137 	 4.160000 	 4.000000 
 4.073479 	 4.319790 	 4.000137 	 4.320000 	 4.000000 
 4.231196 	 4.480104 	 3.999488 	 4.480000 	 4.000000 
 4.389562 	 4.639444 	 4.000137 	 4.640000 	 4.000000 
 4.548253 	 4.799758 	 4.000137 	 4.800000 	 4.000000 
 4.708243 	 4.959747 	 4.000462 	 4.960000 	 4.000000 
 4.868232 	 5.119737 	 4.000137 	 5.120000 	 4.000000 
 5.031791 	 5.280051 	 3.999813 	 5.280000 	 4.000000 
 5.188860 	 5.440690 	 3.999813 	 5.440000 	 4.000000 
 5.349823 	 5.600031 	 3.999813 	 5.600000 	 4.000000 
 5.509164 	 5.760021 	 3.999813 	 5.760000 	 4.000000 
 5.665260 	 5.920660 	 4.000137 	 5.920000 	 4.000000 
 5.825899 	 6.079677 	 4.000137 	 6.080000 	 4.000000 
 5.983943 	 6.239668 	 4.000137 	 6.240000 	 4.000000 
 6.143284 	 6.399983 	 4.000137 	 6.400000 	 4.000000 
 6.304573 	 6.559974 	 4.000137 	 6.560000 	 4.000000 
 6.462617 	 6.719966 	 4.000137 	 6.720000 	 4.000000 
 6.621634 	 6.879957 	 4.000137 	 6.880000 	 4.000000 
 6.783248 	 7.040273 	 4.000137 	 7.040000 	 4.000000 
 6.941617 	 7.200265 	 4.000462 	 7.200000 	 4.000000 
 7.101284 	 7.359933 	 4.000137 	 7.360000 	 4.000000 
 7.259978 	 7.519925 	 4.000137 	 7.520000 	 4.000000 
 7.420295 	 7.680242 	 3.999813 	 7.680000 	 4.000000 
 7.578015 	 7.840235 	 4.000137 	 7.840000 	 4.000000 
 7.734763 	 8.000228 	 3.999813 	 8.000000 	 4.000000 
 7.896054 	 7.839910 	 3.999813 	 7.840000 	 4.000000 
 8.010288 	 7.680242 	 4.000137 	 7.680000 	 4.000000 
 8.034303 	 7.520249 	 4.000462 	 7.520000 	 4.000000 
 7.967450 	 7.359933 	 4.000137 	 7.360000 	 4.000000 
 7.834718 	 7.200265 	 3.999813 	 7.200000 	 4.000000 
 7.663691 	 7.040273 	 4.000137 	 7.040000 	 4.000000 
 7.471895 	 6.880282 	 3.999813 	 6.880000 	 4.000000 
 7.283993 	 6.719966 	 3.999813 	 6.720000 	 4.000000 
 7.104205 	 6.560299 	 4.000137 	 6.560000 	 4.000000 
 6.931557 	 6.400308 	 3.999813 	 6.400000 	 4.000000 
 6.769294 	 6.240317 	 4.000462 	 6.240000 	 4.000000 
 6.611899 	 6.080002 	 4.000462 	 6.080000 	 4.000000 
 6.453855 	 5.920660 	 4.000137 	 5.920000 	 4.000000 
 6.297433 	 5.760021 	 3.999813 	 5.760000 	 4.000000 
 6.141012 	 5.599382 	 4.000137 	 5.600000 	 4.000000 
 5.980697 	 5.440365 	 3.999813 	 5.440000 	 4.000000 
 5.821356 	 5.279726 	 4.000137 	 5.280000 	 4.000000 
 5.662664 	 5.120061 	 4.000137 	 5.120000 	 4.000000 
 5.503323 	 4.960072 	 4.000137 	 4.960000 	 4.000000 
 5.343982 	 4.799433 	 3.999813 	 4.800000 	 4.000000 
 5.183019 	 4.640093 	 4.000137 	 4.640000 	 4.000000 
 5.024976 	 4.479779 	 3.999488 	 4.480000 	 4.000000 
 4.865636 	 4.320115 	 3.999813 	 4.320000 	 4.000000 
 4.706620 	 4.160126 	 3.999813 	 4.160000 	 4.000000 
 4.550525 	 4.000137 	 4.000137 	 4.000000 	 4.000000 
 4.389887 	 3.839500 	 3.999813 	 3.840000 	 4.000000 
 4.230223 	 3.679836 	 4.000137 	 3.680000 	 4.000000 
 4.067638 	 3.519523 	 4.000137 	 3.520000 	 4.000000 
 3.907649 	 3.359210 	 4.000137 	 3.360000 	 4.000000 
 3.747660 	 3.199871 	 3.999813 	 3.200000 	 4.000000 
 3.588645 	 3.039883 	 4.000462 	 3.040000 	 4.000000 
 3.430280 	 2.879895 	 3.999813 	 2.880000 	 4.000000 
 3.273212 	 2.719907 	 3.999813 	 2.720000 	 4.000000 
 3.113224 	 2.559919 	 4.000137 	 2.560000 	 4.000000 
 2.954859 	 2.399282 	 3.999813 	 2.400000 	 4.000000 
 2.794871 	 2.239619 	 3.999813 	 2.240000 	 4.000000 
 2.630664 	 2.078982 	 3.999813 	 2.080000 	 4.000000 
 2.473272 	 1.919319 	 4.000137 	 1.920000 	 4.000000 
 2.312960 	 1.759656 	 4.000462 	 1.760000 	 4.000000 
 2.153946 	 1.599669 	 3.999488 	 1.600000 	 4.000000 
 1.996555 	 1.439681 	 3.999813 	 1.440000 	 4.000000 
 1.836892 	 1.279694 	 3.999813 	 1.280000 	 4.000000 
 1.678527 	 1.119707 	 4.000462 	 1.120000 	 4.000000 
 1.519188 	 0.959720 	 3.999488 	 0.960000 	 4.000000 
 1.359201 	 0.799408 	 4.000137 	 0.800000 	 4.000000 
 1.201485 	 0.639421 	 4.000137 	 0.640000 	 4.000000 
 1.041173 	 0.479433 	 4.000462 	 0.480000 	 4.000000 
 0.880537 	 0.319446 	 3.999813 	 0.320000 	 4.000000 
 0.720225 	 0.159459 	 3.999813 	 0.160000 	 4.000000 
 0.561212 	 0.000121 	 3.999813 	 0.000000 	 4.000000 
 0.400900 	 0.159459 	 4.000462 	 0.160000 	 4.000000 
 0.286995 	 0.319122 	 3.999813 	 0.320000 	 4.000000 
 0.266550 	 0.479758 	 3.999813 	 0.480000 	 4.000000 
 0.334374 	 0.640070 	 4.000137 	 0.640000 	 4.000000 
 0.469049 	 0.799408 	 3.999813 	 0.800000 	 4.000000 
 0.641043 	 0.959395 	 4.000137 	 0.960000 	 4.000000 
 0.826018 	 1.119382 	 4.000137 	 1.120000 	 4.000000 
 1.012616 	 1.279370 	 3.999813 	 1.280000 	 4.000000 
 1.192399 	 1.439681 	 3.999813 	 1.440000 	 4.000000 
 1.362446 	 1.599669 	 4.000137 	 1.600000 	 4.000000 
 1.529248 	 1.759656 	 3.999813 	 1.760000 	 4.000000 
 1.691832 	 1.919644 	 3.999813 	 1.920000 	 4.000000 
 1.848250 	 2.079307 	 4.000137 	 2.080000 	 4.000000 
 2.006290 	 2.239294 	 3.999813 	 2.240000 	 4.000000 
 2.162383 	 2.399607 	 4.000137 	 2.400000 	 4.000000 
 2.318477 	 2.559594 	 4.000137 	 2.560000 	 4.000000 
 2.478140 	 2.719258 	 3.999813 	 2.720000 	 4.000000 
 2.635532 	 2.880219 	 3.999813 	 2.880000 	 4.000000 
 2.794546 	 3.040207 	 4.000137 	 3.040000 	 4.000000 
 2.955832 	 3.199546 	 4.000137 	 3.200000 	 4.000000 
 3.116145 	 3.360183 	 3.999488 	 3.360000 	 4.000000 
 3.274835 	 3.519847 	 3.999813 	 3.520000 	 4.000000 
 3.434498 	 3.679836 	 3.999813 	 3.680000 	 4.000000 
 3.593838 	 3.839824 	 3.999813 	 3.840000 	 4.000000 
 3.754800 	 3.999813 	 4.000137 	 4.000000 	 4.000000 
 3.914788 	 4.159801 	 4.000137 	 4.160000 	 4.000000 
 4.071532 	 4.320115 	 3.999813 	 4.320000 	 4.000000 
 4.231196 	 4.479779 	 4.000137 	 4.480000 	 4.000000 
 4.387940 	 4.640093 	 3.999813 	 4.640000 	 4.000000 
 4.548253 	 4.799758 	 4.000137 	 4.800000 	 4.000000 
 4.708567 	 4.959747 	 3.999813 	 4.960000 	 4.000000 
 4.869205 	 5.119737 	 3.999813 	 5.120000 	 4.000000 
 5.029844 	 5.280375 	 3.999813 	 5.280000 	 4.000000 
 5.190483 	 5.440365 	 3.999813 	 5.440000 	 4.000000 
 5.350472 	 5.600031 	 4.000137 	 5.600000 	 4.000000 
 5.506568 	 5.760021 	 4.000137 	 5.760000 	 4.000000 
 5.663962 	 5.920011 	 4.000137 	 5.920000 	 4.000000 
 5.823952 	 6.079677 	 4.000462 	 6.080000 	 4.000000 
 5.983943 	 6.239992 	 4.000137 	 6.240000 	 4.000000 
 6.144258 	 6.400632 	 4.000462 	 6.400000 	 4.000000 
 6.305547 	 6.559974 	 3.999813 	 6.560000 	 4.000000 
 6.464239 	 6.719966 	 4.000137 	 6.720000 	 4.000000 
 6.622932 	 6.880282 	 4.000137 	 6.880000 	 4.000000 
 6.783573 	 7.039949 	 4.000137 	 7.040000 	 4.000000 
 6.941617 	 7.199941 	 4.000137 	 7.200000 	 4.000000 
 7.099986 	 7.359933 	 3.999813 	 7.360000 	 4.000000 
 7.262250 	 7.519925 	 3.999813 	 7.520000 	 4.000000 
 7.417050 	 7.680242 	 3.999488 	 7.680000 	 4.000000 
 7.578664 	 7.839910 	 4.000137 	 7.840000 	 4.000000 
 7.737359 	 8.000228 	 4.000137 	 8.000000 	 4.000000 
 7.896703 	 7.840235 	 3.999813 	 7.840000 	 4.000000 
 8.010288 	 7.680566 	 3.999813 	 7.680000 	 4.000000 
 8.034628 	 7.519925 	 4.000137 	 7.520000 	 4.000000 
 7.967450 	 7.359933 	 4.000137 	 7.360000 	 4.000000 
 7.833744 	 7.200265 	 4.000137 	 7.200000 	 4.000000 
 7.661419 	 7.039949 	 4.000462 	 7.040000 	 4.000000 
 7.472544 	 6.879957 	 3.999813 	 6.880000 	 4.000000 
 7.283993 	 6.720290 	 4.000137 	 6.720000 	 4.000000 
 7.106152 	 6.560299 	 3.999813 	 6.560000 	 4.000000 
 6.931881 	 6.399983 	 4.000137 	 6.400000 	 4.000000 
 6.767996 	 6.239992 	 4.000137 	 6.240000 	 4.000000 
 6.612548 	 6.080002 	 3.999813 	 6.080000 	 4.000000 
 6.453855 	 5.920336 	 4.000137 	 5.920000 	 4.000000 
 6.298407 	 5.759696 	 4.000137 	 5.760000 	 4.000000 
 6.138741 	 5.599706 	 3.999813 	 5.600000 	 4.000000 
 5.979724 	 5.440365 	 4.000137 	 5.440000 	 4.000000 
 5.822654 	 5.279726 	 4.000137 	 5.280000 	 4.000000 
 5.660717 	 5.120061 	 4.000137 	 5.120000 	 4.000000 
 5.502674 	 4.959747 	 4.000137 	 4.960000 	 4.000000 
 5.344955 	 4.799758 	 4.000137 	 4.800000 	 4.000000 
 5.185290 	 4.640093 	 4.000137 	 4.640000 	 4.000000 
 5.025301 	 4.479779 	 4.000462 	 4.480000 	 4.000000 
 4.865636 	 4.319466 	 3.999813 	 4.320000 	 4.000000 
 4.706620 	 4.160126 	 4.000137 	 4.160000 	 4.000000 
 4.547929 	 3.999813 	 4.000137 	 4.000000 	 4.000000 
 4.387291 	 3.839500 	 3.999813 	 3.840000 	 4.000000 
 4.227302 	 3.680160 	 4.000137 	 3.680000 	 4.000000 
 4.068287 	 3.519847 	 4.000137 	 3.520000 	 4.000000 
 3.907649 	 3.359534 	 4.000137 	 3.360000 	 4.000000 
 3.748634 	 3.199871 	 3.999813 	 3.200000 	 4.000000 
 3.588970 	 3.039883 	 4.000137 	 3.040000 	 4.000000 
 3.430929 	 2.879895 	 4.000462 	 2.880000 	 4.000000 
 3.273861 	 2.720231 	 4.000137 	 2.720000 	 4.000000 
 3.112899 	 2.559594 	 4.000137 	 2.560000 	 4.000000 
 2.954209 	 2.399607 	 4.000137 	 2.400000 	 4.000000 
 2.792599 	 2.239619 	 4.000137 	 2.240000 	 4.000000 
 2.632287 	 2.078982 	 4.000137 	 2.080000 	 4.000000 
 2.474246 	 1.919319 	 3.999813 	 1.920000 	 4.000000 
 2.311987 	 1.759981 	 3.999813 	 1.760000 	 4.000000 
 2.154270 	 1.599669 	 4.000137 	 1.600000 	 4.000000 
 1.998177 	 1.439681 	 3.999813 	 1.440000 	 4.000000 
 1.837541 	 1.279694 	 3.999813 	 1.280000 	 4.000000 
 1.680798 	 1.119058 	 3.999813 	 1.120000 	 4.000000 
 1.519513 	 0.959395 	 3.999813 	 0.960000 	 4.000000 
 1.357254 	 0.799083 	 4.000137 	 0.800000 	 4.000000 
 1.198565 	 0.639421 	 4.000137 	 0.640000 	 4.000000 
 1.037928 	 0.479109 	 3.999813 	 0.480000 	 4.000000 
 0.880862 	 0.319771 	 3.999813 	 0.320000 	 4.000000 
 0.720875 	 0.159459 	 3.999813 	 0.160000 	 4.000000 
 0.560563 	 -0.000203 	 4.000137 	 0.000000 	 4.000000 
 0.402523 	 0.159459 	 3.999813 	 0.160000 	 4.000000 
 0.288942 	 0.319771 	 4.000137 	 0.320000 	 4.000000 
 0.266550 	 0.479758 	 3.999813 	 0.480000 	 4.000000 
 0.334699 	 0.639421 	 3.999488 	 0.640000 	 4.000000 
 0.468075 	 0.799408 	 3.999813 	 0.800000 	 4.000000 
 0.639745 	 0.959395 	 4.000462 	 0.960000 	 4.000000 
 0.825369 	 1.119058 	 4.000137 	 1.120000 	 4.000000 
 1.011967 	 1.279694 	 4.000137 	 1.280000 	 4.000000 
 1.191750 	 1.439681 	 4.000137 	 1.440000 	 4.000000 
 1.363744 	 1.599344 	 4.000137 	 1.600000 	 4.000000 
 1.530546 	 1.759656 	 3.999813 	 1.760000 	 4.000000 
 1.691183 	 1.919644 	 3.999813 	 1.920000 	 4.000000 
 1.850197 	 2.079307 	 4.000137 	 2.080000 	 4.000000 
 2.006615 	 2.239619 	 4.000137 	 2.240000 	 4.000000 
 2.158165 	 2.399931 	 4.000137 	 2.400000 	 4.000000 
 2.316854 	 2.559594 	 3.999813 	 2.560000 	 4.000000 
 2.476193 	 2.719907 	 3.999813 	 2.720000 	 4.000000 
 2.632936 	 2.880219 	 4.000137 	 2.880000 	 4.000000 
 2.795520 	 3.039883 	 4.000137 	 3.040000 	 4.000000 
 2.957455 	 3.199871 	 3.999813 	 3.200000 	 4.000000 
 3.116794 	 3.359534 	 3.999813 	 3.360000 	 4.000000 
 3.276782 	 3.519847 	 3.999813 	 3.520000 	 4.000000 
 3.435472 	 3.679836 	 3.999813 	 3.680000 	 4.000000 
 3.591891 	 3.839500 	 4.000137 	 3.840000 	 4.000000 
 3.751879 	 3.999488 	 3.999813 	 4.000000 	 4.000000 
 3.910245 	 4.160126 	 3.999813 	 4.160000 	 4.000000 
 4.070883 	 4.319790 	 4.000137 	 4.320000 	 4.000000 
 4.230223 	 4.479779 	 4.000137 	 4.480000 	 4.000000 
 4.389562 	 4.639768 	 3.999813 	 4.640000 	 4.000000 
 4.549551 	 4.799758 	 4.000137 	 4.800000 	 4.000000 
 4.709216 	 4.959747 	 3.999813 	 4.960000 	 4.000000 
 4.869854 	 5.119412 	 3.999813 	 5.120000 	 4.000000 
 5.030493 	 5.280375 	 3.999813 	 5.280000 	 4.000000 
 5.189509 	 5.440365 	 4.000137 	 5.440000 	 4.000000 
 5.348525 	 5.600031 	 3.999813 	 5.600000 	 4.000000 
 5.506568 	 5.760021 	 4.000462 	 5.760000 	 4.000000 
 5.664935 	 5.920336 	 4.000137 	 5.920000 	 4.000000 
 5.824926 	 6.080002 	 3.999813 	 6.080000 	 4.000000 
 5.983294 	 6.239992 	 3.999813 	 6.240000 	 4.000000 
 6.146205 	 6.400308 	 4.000462 	 6.400000 	 4.000000 
 6.306520 	 6.560299 	 4.000137 	 6.560000 	 4.000000 
 6.463915 	 6.719966 	 4.000137 	 6.720000 	 4.000000 
 6.623906 	 6.879957 	 4.000137 	 6.880000 	 4.000000 
 6.780977 	 7.039949 	 3.999813 	 7.040000 	 4.000000 
 6.939670 	 7.200265 	 3.999813 	 7.200000 	 4.000000 
 7.099986 	 7.359933 	 3.999813 	 7.360000 	 4.000000 
 7.257057 	 7.520249 	 3.999813 	 7.520000 	 4.000000 
 7.416400 	 7.680566 	 4.000137 	 7.680000 	 4.000000 
 7.579963 	 7.839586 	 3.999813 	 7.840000 	 4.000000 
 7.738333 	 8.000552 	 4.000137 	 8.000000 	 4.000000 
 7.897676 	 7.839910 	 3.999813 	 7.840000 	 4.000000 
 8.012560 	 7.680566 	 3.999813 	 7.680000 	 4.000000 
 8.033979 	 7.519925 	 4.000137 	 7.520000 	 4.000000 
 7.966152 	 7.359933 	 4.000137 	 7.360000 	 4.000000 
 7.832121 	 7.200265 	 4.000137 	 7.200000 	 4.000000 
 7.659797 	 7.039624 	 3.999813 	 7.040000 	 4.000000 
 7.473517 	 6.879957 	 4.000137 	 6.880000 	 4.000000 
 7.284967 	 6.719966 	 4.000137 	 6.720000 	 4.000000 
 7.104854 	 6.559974 	 3.999813 	 6.560000 	 4.000000 
 6.934153 	 6.400632 	 4.000137 	 6.400000 	 4.000000 
 6.770916 	 6.239992 	 3.999813 	 6.240000 	 4.000000 
 6.612872 	 6.079677 	 3.999813 	 6.080000 	 4.000000 
 6.453530 	 5.920011 	 4.000137 	 5.920000 	 4.000000 
 6.297433 	 5.760021 	 4.000137 	 5.760000 	 4.000000 
 6.139065 	 5.599706 	 3.999813 	 5.600000 	 4.000000 
 5.979075 	 5.440041 	 4.000137 	 5.440000 	 4.000000 
 5.820382 	 5.280051 	 4.000137 	 5.280000 	 4.000000 
 5.660392 	 5.119737 	 4.000462 	 5.120000 	 4.000000 
 5.502998 	 4.959747 	 4.000137 	 4.960000 	 4.000000 
 5.345929 	 4.800082 	 4.000137 	 4.800000 	 4.000000 
 5.185939 	 4.640093 	 4.000137 	 4.640000 	 4.000000 
 5.027248 	 4.479455 	 3.999813 	 4.480000 	 4.000000 
 4.866285 	 4.319790 	 4.000137 	 4.320000 	 4.000000 
 4.706620 	 4.160126 	 4.000462 	 4.160000 	 4.000000 
 4.546631 	 3.999813 	 4.000137 	 4.000000 	 4.000000 
 4.385668 	 3.839824 	 3.999813 	 3.840000 	 4.000000 
 4.226004 	 3.679836 	 3.999813 	 3.680000 	 4.000000 
 4.072505 	 3.519523 	 4.000137 	 3.520000 	 4.000000 
 3.908298 	 3.359859 	 3.999813 	 3.360000 	 4.000000 
 3.749607 	 3.200195 	 4.000137 	 3.200000 	 4.000000 
 3.591891 	 3.039558 	 3.999813 	 3.040000 	 4.000000 
 3.429955 	 2.880219 	 4.000137 	 2.880000 	 4.000000 
 3.273212 	 2.719907 	 3.999813 	 2.720000 	 4.000000 
 3.112575 	 2.559270 	 3.999813 	 2.560000 	 4.000000 
 2.952262 	 2.399931 	 3.999488 	 2.400000 	 4.000000 
 2.793248 	 2.239619 	 4.000137 	 2.240000 	 4.000000 
 2.632611 	 2.079307 	 4.000137 	 2.080000 	 4.000000 
 2.471974 	 1.919644 	 4.000137 	 1.920000 	 4.000000 
 2.312636 	 1.759332 	 3.999813 	 1.760000 	 4.000000 
 2.155569 	 1.599669 	 4.000137 	 1.600000 	 4.000000 
 1.997853 	 1.440006 	 4.000137 	 1.440000 	 4.000000 
 1.838839 	 1.279370 	 4.000137 	 1.280000 	 4.000000 
 1.680474 	 1.119382 	 3.999813 	 1.120000 	 4.000000 
 1.518215 	 0.959395 	 3.999813 	 0.960000 	 4.000000 
 1.356929 	 0.798759 	 4.000137 	 0.800000 	 4.000000 
 1.199863 	 0.639745 	 3.999813 	 0.640000 	 4.000000 
 1.036630 	 0.479433 	 4.000137 	 0.480000 	 4.000000 
 0.879888 	 0.319446 	 4.000137 	 0.320000 	 4.000000 
 0.723146 	 0.160108 	 3.999813 	 0.160000 	 4.000000 
 0.563808 	 -0.000203 	 4.000137 	 0.000000 	 4.000000 
 0.404145 	 0.159459 	 3.999813 	 0.160000 	 4.000000 
 0.288942 	 0.319446 	 3.999813 	 0.320000 	 4.000000 
 0.265901 	 0.479433 	 4.000462 	 0.480000 	 4.000000 
 0.334699 	 0.639421 	 3.999813 	 0.640000 	 4.000000 
 0.466453 	 0.799408 	 4.000137 	 0.800000 	 4.000000 
 0.638772 	 0.959395 	 4.000137 	 0.960000 	 4.000000 
 0.826018 	 1.119382 	 3.999813 	 1.120000 	 4.000000 
 1.012940 	 1.279694 	 3.999813 	 1.280000 	 4.000000 
 1.193372 	 1.439681 	 4.000137 	 1.440000 	 4.000000 
 1.366665 	 1.599344 	 4.000137 	 1.600000 	 4.000000 
 1.528924 	 1.759332 	 3.999813 	 1.760000 	 4.000000 
 1.691183 	 1.919968 	 4.000137 	 1.920000 	 4.000000 
 1.847925 	 2.079631 	 4.000462 	 2.080000 	 4.000000 
 2.004992 	 2.239619 	 3.999488 	 2.240000 	 4.000000 
 2.160112 	 2.399282 	 3.999813 	 2.400000 	 4.000000 
 2.317503 	 2.558945 	 3.999813 	 2.560000 	 4.000000 
 2.476517 	 2.719582 	 3.999813 	 2.720000 	 4.000000 
 2.634234 	 2.879895 	 4.000137 	 2.880000 	 4.000000 
 2.796169 	 3.039883 	 4.000137 	 3.040000 	 4.000000 
 2.957455 	 3.199871 	 4.000137 	 3.200000 	 4.000000 
 3.116794 	 3.359534 	 3.999813 	 3.360000 	 4.000000 
 3.278080 	 3.519847 	 4.000462 	 3.520000 	 4.000000 
 3.434498 	 3.679511 	 4.000137 	 3.680000 	 4.000000 
 3.592540 	 3.839500 	 4.000137 	 3.840000 	 4.000000 
];